#  E (eV)   dos(E)     Int dos(E)
-10.000  0.3123E-85  0.3123E-86
 -9.900  0.3123E-85  0.6246E-86
 -9.800  0.3123E-85  0.9369E-86
 -9.700  0.3123E-85  0.1249E-85
 -9.600  0.3123E-85  0.1562E-85
 -9.500  0.3123E-85  0.1874E-85
 -9.400  0.3123E-85  0.2186E-85
 -9.300  0.3123E-85  0.2498E-85
 -9.200  0.3123E-85  0.2811E-85
 -9.100  0.3123E-85  0.3123E-85
 -9.000  0.3123E-85  0.3435E-85
 -8.900  0.3123E-85  0.3748E-85
 -8.800  0.3123E-85  0.4060E-85
 -8.700  0.3123E-85  0.4372E-85
 -8.600  0.3123E-85  0.4685E-85
 -8.500  0.3123E-85  0.4997E-85
 -8.400  0.3123E-85  0.5309E-85
 -8.300  0.3123E-85  0.5622E-85
 -8.200  0.3123E-85  0.5934E-85
 -8.100  0.3123E-85  0.6246E-85
 -8.000  0.3123E-85  0.6559E-85
 -7.900  0.3123E-85  0.6871E-85
 -7.800  0.3123E-85  0.7183E-85
 -7.700  0.3123E-85  0.7495E-85
 -7.600  0.3123E-85  0.7808E-85
 -7.500  0.3123E-85  0.8120E-85
 -7.400  0.3123E-85  0.8432E-85
 -7.300  0.3123E-85  0.8745E-85
 -7.200  0.3123E-85  0.9057E-85
 -7.100  0.3123E-85  0.9369E-85
 -7.000  0.3123E-85  0.9682E-85
 -6.900  0.3123E-85  0.9994E-85
 -6.800  0.3123E-85  0.1031E-84
 -6.700  0.3123E-85  0.1062E-84
 -6.600  0.3123E-85  0.1093E-84
 -6.500  0.3123E-85  0.1124E-84
 -6.400  0.3123E-85  0.1156E-84
 -6.300  0.3123E-85  0.1187E-84
 -6.200  0.3123E-85  0.1218E-84
 -6.100  0.3123E-85  0.1249E-84
 -6.000  0.3123E-85  0.1280E-84
 -5.900  0.3123E-85  0.1312E-84
 -5.800  0.3123E-85  0.1343E-84
 -5.700  0.3123E-85  0.1374E-84
 -5.600  0.3123E-85  0.1405E-84
 -5.500  0.3123E-85  0.1437E-84
 -5.400  0.3123E-85  0.1468E-84
 -5.300  0.3123E-85  0.1499E-84
 -5.200  0.3123E-85  0.1530E-84
 -5.100  0.3123E-85  0.1562E-84
 -5.000  0.3123E-85  0.1593E-84
 -4.900  0.3123E-85  0.1624E-84
 -4.800  0.3123E-85  0.1655E-84
 -4.700  0.3123E-85  0.1686E-84
 -4.600  0.3123E-85  0.1718E-84
 -4.500  0.1774E-77  0.1774E-78
 -4.400  0.1520E-66  0.1520E-67
 -4.300  0.1766E-56  0.1766E-57
 -4.200  0.2785E-47  0.2785E-48
 -4.100  0.5976E-39  0.5976E-40
 -4.000  0.1754E-31  0.1754E-32
 -3.900  0.7109E-25  0.7109E-26
 -3.800  0.4040E-19  0.4040E-20
 -3.700  0.3299E-14  0.3299E-15
 -3.600  0.3998E-10  0.3998E-11
 -3.500  0.7412E-07  0.7416E-08
 -3.400  0.2162E-04  0.2169E-05
 -3.300  0.1052E-02  0.1074E-03
 -3.200  0.1027E-01  0.1135E-02
 -3.100  0.2973E-01  0.4108E-02
 -3.000  0.4616E-01  0.8723E-02
 -2.900  0.5633E-01  0.1436E-01
 -2.800  0.6780E-01  0.2114E-01
 -2.700  0.7282E-01  0.2842E-01
 -2.600  0.8638E-01  0.3706E-01
 -2.500  0.8403E-01  0.4546E-01
 -2.400  0.9965E-01  0.5542E-01
 -2.300  0.1029E+00  0.6572E-01
 -2.200  0.9886E-01  0.7560E-01
 -2.100  0.1236E+00  0.8797E-01
 -2.000  0.1163E+00  0.9960E-01
 -1.900  0.1124E+00  0.1108E+00
 -1.800  0.1396E+00  0.1248E+00
 -1.700  0.1357E+00  0.1384E+00
 -1.600  0.1285E+00  0.1512E+00
 -1.500  0.1353E+00  0.1648E+00
 -1.400  0.1623E+00  0.1810E+00
 -1.300  0.1558E+00  0.1966E+00
 -1.200  0.1294E+00  0.2095E+00
 -1.100  0.1670E+00  0.2262E+00
 -1.000  0.1742E+00  0.2436E+00
 -0.900  0.1717E+00  0.2608E+00
 -0.800  0.1567E+00  0.2765E+00
 -0.700  0.1597E+00  0.2924E+00
 -0.600  0.1986E+00  0.3123E+00
 -0.500  0.1907E+00  0.3314E+00
 -0.400  0.1809E+00  0.3494E+00
 -0.300  0.1754E+00  0.3670E+00
 -0.200  0.1704E+00  0.3840E+00
 -0.100  0.2341E+00  0.4074E+00
  0.000  0.2086E+00  0.4283E+00
  0.100  0.1833E+00  0.4466E+00
  0.200  0.1921E+00  0.4658E+00
  0.300  0.2099E+00  0.4868E+00
  0.400  0.2184E+00  0.5087E+00
  0.500  0.2345E+00  0.5321E+00
  0.600  0.2274E+00  0.5549E+00
  0.700  0.1965E+00  0.5745E+00
  0.800  0.1980E+00  0.5943E+00
  0.900  0.2545E+00  0.6197E+00
  1.000  0.2371E+00  0.6435E+00
  1.100  0.2537E+00  0.6688E+00
  1.200  0.2358E+00  0.6924E+00
  1.300  0.2101E+00  0.7134E+00
  1.400  0.2190E+00  0.7353E+00
  1.500  0.2670E+00  0.7620E+00
  1.600  0.2917E+00  0.7912E+00
  1.700  0.2366E+00  0.8148E+00
  1.800  0.2458E+00  0.8394E+00
  1.900  0.2611E+00  0.8655E+00
  2.000  0.2387E+00  0.8894E+00
  2.100  0.2471E+00  0.9141E+00
  2.200  0.2908E+00  0.9432E+00
  2.300  0.3160E+00  0.9748E+00
  2.400  0.2599E+00  0.1001E+01
  2.500  0.2501E+00  0.1026E+01
  2.600  0.2602E+00  0.1052E+01
  2.700  0.2620E+00  0.1078E+01
  2.800  0.3220E+00  0.1110E+01
  2.900  0.2921E+00  0.1139E+01
  3.000  0.3009E+00  0.1170E+01
  3.100  0.3181E+00  0.1201E+01
  3.200  0.2513E+00  0.1226E+01
  3.300  0.2666E+00  0.1253E+01
  3.400  0.3072E+00  0.1284E+01
  3.500  0.3450E+00  0.1318E+01
  3.600  0.3092E+00  0.1349E+01
  3.700  0.3158E+00  0.1381E+01
  3.800  0.3251E+00  0.1413E+01
  3.900  0.3172E+00  0.1445E+01
  4.000  0.2542E+00  0.1470E+01
  4.100  0.3046E+00  0.1501E+01
  4.200  0.3363E+00  0.1535E+01
  4.300  0.3467E+00  0.1569E+01
  4.400  0.3770E+00  0.1607E+01
  4.500  0.3366E+00  0.1641E+01
  4.600  0.2787E+00  0.1668E+01
  4.700  0.3357E+00  0.1702E+01
  4.800  0.3206E+00  0.1734E+01
  4.900  0.3334E+00  0.1767E+01
  5.000  0.3832E+00  0.1806E+01
  5.100  0.3926E+00  0.1845E+01
  5.200  0.3585E+00  0.1881E+01
  5.300  0.3639E+00  0.1917E+01
  5.400  0.3846E+00  0.1956E+01
  5.500  0.3003E+00  0.1986E+01
  5.600  0.4010E+00  0.2026E+01
  5.700  0.4114E+00  0.2067E+01
  5.800  0.3345E+00  0.2100E+01
  5.900  0.3695E+00  0.2137E+01
  6.000  0.3691E+00  0.2174E+01
  6.100  0.3567E+00  0.2210E+01
  6.200  0.3569E+00  0.2246E+01
  6.300  0.3652E+00  0.2282E+01
  6.400  0.2596E+00  0.2308E+01
  6.500  0.3065E+00  0.2339E+01
  6.600  0.4035E+00  0.2379E+01
  6.700  0.3950E+00  0.2419E+01
  6.800  0.3510E+00  0.2454E+01
  6.900  0.3390E+00  0.2488E+01
  7.000  0.3813E+00  0.2526E+01
  7.100  0.3765E+00  0.2563E+01
  7.200  0.3996E+00  0.2603E+01
  7.300  0.3388E+00  0.2637E+01
  7.400  0.3878E+00  0.2676E+01
  7.500  0.4424E+00  0.2720E+01
  7.600  0.3659E+00  0.2757E+01
  7.700  0.3916E+00  0.2796E+01
  7.800  0.3547E+00  0.2832E+01
  7.900  0.3499E+00  0.2867E+01
  8.000  0.3669E+00  0.2903E+01
  8.100  0.3075E+00  0.2934E+01
  8.200  0.2893E+00  0.2963E+01
  8.300  0.2709E+00  0.2990E+01
  8.400  0.3029E+00  0.3020E+01
  8.500  0.2958E+00  0.3050E+01
  8.600  0.2995E+00  0.3080E+01
  8.700  0.2805E+00  0.3108E+01
  8.800  0.2635E+00  0.3134E+01
  8.900  0.2651E+00  0.3161E+01
  9.000  0.2385E+00  0.3185E+01
  9.100  0.2130E+00  0.3206E+01
  9.200  0.1953E+00  0.3225E+01
  9.300  0.2446E+00  0.3250E+01
  9.400  0.2366E+00  0.3273E+01
  9.500  0.2257E+00  0.3296E+01
  9.600  0.2306E+00  0.3319E+01
  9.700  0.2149E+00  0.3341E+01
  9.800  0.1531E+00  0.3356E+01
  9.900  0.1822E+00  0.3374E+01
 10.000  0.2247E+00  0.3397E+01
 10.100  0.2029E+00  0.3417E+01
 10.200  0.1855E+00  0.3435E+01
 10.300  0.1200E+00  0.3447E+01
 10.400  0.1622E+00  0.3464E+01
 10.500  0.1692E+00  0.3481E+01
 10.600  0.1712E+00  0.3498E+01
 10.700  0.1726E+00  0.3515E+01
 10.800  0.1958E+00  0.3535E+01
 10.900  0.1538E+00  0.3550E+01
 11.000  0.9051E-01  0.3559E+01
 11.100  0.1261E+00  0.3572E+01
 11.200  0.1393E+00  0.3585E+01
 11.300  0.1640E+00  0.3602E+01
 11.400  0.1586E+00  0.3618E+01
 11.500  0.9864E-01  0.3628E+01
 11.600  0.1079E+00  0.3638E+01
 11.700  0.1518E+00  0.3654E+01
 11.800  0.8686E-01  0.3662E+01
 11.900  0.9159E-01  0.3671E+01
 12.000  0.1557E+00  0.3687E+01
 12.100  0.1313E+00  0.3700E+01
 12.200  0.1098E+00  0.3711E+01
 12.300  0.9217E-01  0.3720E+01
 12.400  0.6279E-01  0.3727E+01
 12.500  0.9267E-01  0.3736E+01
 12.600  0.1240E+00  0.3748E+01
 12.700  0.8723E-01  0.3757E+01
 12.800  0.8373E-01  0.3765E+01
 12.900  0.9672E-01  0.3775E+01
 13.000  0.9352E-01  0.3784E+01
 13.100  0.9081E-01  0.3793E+01
 13.200  0.6292E-01  0.3800E+01
 13.300  0.5064E-01  0.3805E+01
 13.400  0.8775E-01  0.3814E+01
 13.500  0.1116E+00  0.3825E+01
 13.600  0.6227E-01  0.3831E+01
 13.700  0.5893E-01  0.3837E+01
 13.800  0.7484E-01  0.3844E+01
 13.900  0.5715E-01  0.3850E+01
 14.000  0.5159E-01  0.3855E+01
 14.100  0.6392E-01  0.3862E+01
 14.200  0.6312E-01  0.3868E+01
 14.300  0.5893E-01  0.3874E+01
 14.400  0.6146E-01  0.3880E+01
 14.500  0.5371E-01  0.3885E+01
 14.600  0.5646E-01  0.3891E+01
 14.700  0.6647E-01  0.3898E+01
 14.800  0.3261E-01  0.3901E+01
 14.900  0.1496E-01  0.3902E+01
 15.000  0.4918E-01  0.3907E+01
 15.100  0.7650E-01  0.3915E+01
 15.200  0.4229E-01  0.3919E+01
 15.300  0.3415E-01  0.3923E+01
 15.400  0.3131E-01  0.3926E+01
 15.500  0.3980E-01  0.3930E+01
 15.600  0.4272E-01  0.3934E+01
 15.700  0.2970E-01  0.3937E+01
 15.800  0.1765E-01  0.3939E+01
 15.900  0.3141E-01  0.3942E+01
 16.000  0.4570E-01  0.3946E+01
 16.100  0.3694E-01  0.3950E+01
 16.200  0.2151E-01  0.3952E+01
 16.300  0.2170E-01  0.3954E+01
 16.400  0.3841E-01  0.3958E+01
 16.500  0.2711E-01  0.3961E+01
 16.600  0.6498E-02  0.3962E+01
 16.700  0.4960E-02  0.3962E+01
 16.800  0.2941E-01  0.3965E+01
 16.900  0.3746E-01  0.3969E+01
 17.000  0.2423E-01  0.3971E+01
 17.100  0.1801E-01  0.3973E+01
 17.200  0.1540E-01  0.3975E+01
 17.300  0.2127E-01  0.3977E+01
 17.400  0.1412E-01  0.3978E+01
 17.500  0.3766E-02  0.3979E+01
 17.600  0.3027E-02  0.3979E+01
 17.700  0.1981E-01  0.3981E+01
 17.800  0.2787E-01  0.3984E+01
 17.900  0.1382E-01  0.3985E+01
 18.000  0.1373E-01  0.3986E+01
 18.100  0.1045E-01  0.3987E+01
 18.200  0.1230E-01  0.3989E+01
 18.300  0.7018E-02  0.3989E+01
 18.400  0.6303E-03  0.3989E+01
 18.500  0.1140E-02  0.3990E+01
 18.600  0.1207E-01  0.3991E+01
 18.700  0.1833E-01  0.3993E+01
 18.800  0.5846E-02  0.3993E+01
 18.900  0.1070E-01  0.3994E+01
 19.000  0.9072E-02  0.3995E+01
 19.100  0.3945E-02  0.3996E+01
 19.200  0.2333E-02  0.3996E+01
 19.300  0.2604E-03  0.3996E+01
 19.400  0.6174E-03  0.3996E+01
 19.500  0.6390E-02  0.3996E+01
 19.600  0.9046E-02  0.3997E+01
 19.700  0.2955E-02  0.3998E+01
 19.800  0.6178E-02  0.3998E+01
 19.900  0.5203E-02  0.3999E+01
 20.000  0.7026E-03  0.3999E+01
